File: SIBC StrucMag/processed_XRD_spectra/Cu Metal_processed.csv
Angle,Intensity
5.00857,0.0133457
5.40247,0.0136381
5.79638,0.0105282
6.19029,0.014064
6.5842,0.0156316
6.97811,0.0146893
7.37202,0.00973807
7.76592,0.0151533
8.15983,0.00880178
8.55374,0.0162644
8.94765,0.00991365
9.34156,0.0168283
9.73547,0.0096451
10.1294,0.0158751
10.5233,0.00373152
10.9172,0.0199349
11.3111,0.0104254
11.705,0.0161588
12.0989,0.0131026
12.4928,0.00861447
12.8867,0.0103265
13.2806,0.00981441
13.6746,0.00891126
14.0685,0.00770537
14.4624,0.0116724
14.8563,0.011815
15.2502,0.0110852
15.6441,0.0123754
16.038,0.0154438
16.4319,0.0159868
16.8258,0.013621
17.2197,0.0141958
17.6136,0.0135574
18.0075,0.00935311
18.4015,0.0109644
18.7954,0.0102192
19.1893,0.0165075
19.5832,0.0123927
19.9771,0.00996818
20.371,0.011376
20.7649,0.0105163
21.1588,0.0147581
21.5527,0.0132703
21.9466,0.0114423
22.3405,0.0162874
22.7344,0.00810974
23.1284,0.0129147
23.5223,0.00467281
23.9162,0.00866551
24.3101,0.00751299
24.704,0.0123232
25.0979,0.0207227
25.4918,0.0138892
25.8857,0.011395
26.2796,0.0149352
26.6735,0.0105559
27.0674,0.0149797
27.4613,0.0143581
27.8553,0.0105059
28.2492,0.0173381
28.6431,0.0119608
29.037,0.0103446
29.4309,0.0175131
29.8248,0.0130411
30.2187,0.0135756
30.6126,0.00997661
31.0065,0.0139819
31.4004,0.0187256
31.7943,0.0114588
32.1883,0.0124905
32.5822,0.0102596
32.9761,0.00603806
33.37,0.0142895
33.7639,0.0140031
34.1578,0.0110271
34.5517,0.00888224
34.9456,0.014792
35.3395,0.0135994
35.7334,0.0108294
36.1273,0.0130742
36.5212,0.0158934
36.9152,0.0155715
37.3091,0.0139096
37.703,0.0195992
38.0969,0.0132382
38.4908,0.0123671
38.8847,0.00549102
39.2786,0.00973719
39.6725,0.0160185
40.0664,0.00941279
40.4603,0.0161165
40.8542,0.0130176
41.2481,0.00997603
41.6421,0.017852
42.036,0.0183698
42.4299,0.0171301
42.8238,0.0296739
43.2177,0.407867
43.6116,0.098184
44.0055,0.0212976
44.3994,0.0162052
44.7933,0.0105914
45.1872,0.0132628
45.5811,0.00872987
45.975,0.00996493
46.369,0.0124876
46.7629,0.0152659
47.1568,0.00948542
47.5507,0.0095636
47.9446,0.0122018
48.3385,0.0102133
48.7324,0.0177347
49.1263,0.0198493
49.5202,0.020858
49.9141,0.0534295
50.308,0.637721
50.7019,0.192131
51.0959,0.0300879
51.4898,0.0150909
51.8837,0.0184433
52.2776,0.0113237
52.6715,0.00919576
53.0654,0.00916994
53.4593,0.0116529
53.8532,0.017094
54.2471,0.0115731
54.641,0.0160119
55.0349,0.0113689
55.4289,0.0109615
55.8228,0.0148114
56.2167,0.0102866
56.6106,0.0102882
57.0045,0.0129766
57.3984,0.00436822
57.7923,0.0141327
58.1862,0.00939278
58.5801,0.011416
58.974,0.0113851
59.3679,0.0117327
59.7618,0.0116536
60.1558,0.0190136
60.5497,0.0190605
60.9436,0.00926439
61.3375,0.013642
61.7314,0.0102496
62.1253,0.0126564
62.5192,0.0148521
62.9131,0.012993
63.307,0.0127728
63.7009,0.0113454
64.0948,0.0157823
64.4887,0.0133965
64.8827,0.0119931
65.2766,0.00927513
65.6705,0.0130929
66.0644,0.0116789
66.4583,0.00667428
66.8522,0.0118545
67.2461,0.0131935
67.64,0.00610264
68.0339,0.0171864
68.4278,0.0121932
68.8217,0.0111396
69.2156,0.00990543
69.6096,0.0158685
70.0035,0.0150786
70.3974,0.0168391
70.7913,0.017718
71.1852,0.0220145
71.5791,0.0152708
71.973,0.0199085
72.3669,0.0144086
72.7608,0.014102
73.1547,0.017235
73.5486,0.0341142
73.9425,0.227276
74.3365,0.344504
74.7304,0.0327381
75.1243,0.0186488
75.5182,0.0115829
75.9121,0.0110327
76.306,0.0106658
76.6999,0.0084115
77.0938,0.0103997
77.4877,0.00961362
77.8816,0.00995818
78.2755,0.0136874
78.6695,0.0117197
79.0634,0.0106677
79.4573,0.0138535
79.8512,0.0117389
80.2451,0.0106204
80.639,0.0100302
81.0329,0.0207205
81.4268,0.0176669
81.8207,0.0134902
82.2146,0.0142265
82.6085,0.00971106
83.0024,0.013431
83.3964,0.0155247
83.7903,0.011198
84.1842,0.0148154
84.5781,0.0136631
84.972,0.00699026
85.3659,0.0146491
85.7598,0.0147447
86.1537,0.0117735
86.5476,0.0172391
86.9415,0.00996729
87.3354,0.00907267
87.7293,0.0103432
88.1233,0.012998
88.5172,0.013702
88.9111,0.0175697
89.305,0.0339849
89.6989,0.178919
90.0928,0.240898
90.4867,0.0526377
90.8806,0.0188987
91.2745,0.0117773
91.6684,0.0124177
92.0623,0.00733247
92.4562,0.00985965
92.8502,0.0122115
93.2441,0.0118919
93.638,0.0147182
94.0319,0.00580605
94.4258,0.0112299
94.8197,0.0199045
95.2136,0.0518025
95.6075,0.0222755
96.0014,0.0147032
96.3953,0.0125124
96.7892,0.0179556
97.1831,0.0120031
97.5771,0.0146495
97.971,0.00655144
98.3649,0.0116588
98.7588,0.0188579
99.1527,0.0210819
99.5466,0.0132653
99.9405,0.0127639
100.334,0.0114245
100.728,0.0120131
101.122,0.0144157
101.516,0.0120417
101.91,0.0134021
102.304,0.0131933
102.698,0.0178372
103.092,0.0144243
103.486,0.0148946
103.88,0.00962665
104.274,0.00915236
104.667,0.0122069
105.061,0.0126432
105.455,0.0120063
105.849,0.0115478
106.243,0.0117889
106.637,0.0130384
107.031,0.00848445
107.425,0.00655928
107.819,0.00813089
108.213,0.0102236
108.606,0.023409
109,0.0129456
109.394,0.0107975
109.788,0.0133507
110.182,0.0104166
110.576,0.0118357
110.97,0.0115243
111.364,0.00993847
111.758,0.0165896
112.152,0.00983179
112.546,0.0144998
112.939,0.00894561
113.333,0.0133768
113.727,0.00809861
114.121,0.00814271
114.515,0.0128588
114.909,0.00874194
115.303,0.00804627
115.697,0.0106267
116.091,0.018524
116.485,0.0518353
116.879,0.108171
117.272,0.077269
117.666,0.0198936
118.06,0.00781224
118.454,0.0093462
118.848,0.00802471
119.242,0.0167563
119.636,0.0100911
119.99,0.0102405