File: SIBC StrucMag/processed_XRD_spectra/Fu21Gd-SM1a_processed.csv
Angle,Intensity
5.01057,0.0217353
5.40447,0.0242833
5.79838,0.0201383
6.19229,0.0206575
6.5862,0.0212617
6.98011,0.0293924
7.37402,0.0406585
7.76792,0.0302877
8.16183,0.0150906
8.55574,0.0328728
8.94965,0.0170778
9.34356,0.0225808
9.73747,0.0261747
10.1314,0.0203113
10.5253,0.0231928
10.9192,0.0293026
11.3131,0.019403
11.707,0.0150183
12.1009,0.0169891
12.4948,0.0267665
12.8887,0.021828
13.2826,0.0136467
13.6766,0.0156268
14.0705,0.019849
14.4644,0.0158888
14.8583,0.019071
15.2522,0.0303113
15.6461,0.0251156
16.04,0.0269866
16.4339,0.021117
16.8278,0.0276314
17.2217,0.0335445
17.6156,0.0249109
18.0095,0.0280354
18.4035,0.0264495
18.7974,0.0177988
19.1913,0.028659
19.5852,0.0278473
19.9791,0.0243458
20.373,0.0255517
20.7669,0.0264778
21.1608,0.0192936
21.5547,0.0240403
21.9486,0.0270927
22.3425,0.0493711
22.7364,0.646553
23.1304,0.0884955
23.5243,0.0395571
23.9182,0.0353801
24.3121,0.0360117
24.706,0.0249001
25.0999,0.0219297
25.4938,0.0185705
25.8877,0.0226915
26.2816,0.0302979
26.6755,0.0214535
27.0694,0.0220834
27.4633,0.013362
27.8573,0.0274219
28.2512,0.0316883
28.6451,0.0164991
29.039,0.0222138
29.4329,0.0323646
29.8268,0.0207833
30.2207,0.0349351
30.6146,0.0565329
31.0085,0.0126923
31.4024,0.0192411
31.7963,0.021221
32.1903,0.0277791
32.5842,0.0250554
32.9781,0.171163
33.372,0.0389059
33.7659,0.0192266
34.1598,0.0313002
34.5537,0.0223034
34.9476,0.0105578
35.3415,0.0230453
35.7354,0.0209305
36.1293,0.0273913
36.5232,0.0233463
36.9172,0.0275315
37.3111,0.0298247
37.705,0.0461907
38.0989,0.172381
38.4928,0.384556
38.8867,0.0546359
39.2806,0.0357486
39.6745,0.0182904
40.0684,0.0259292
40.4623,0.0265122
40.8562,0.0236446
41.2501,0.0125599
41.6441,0.0168832
42.038,0.0226055
42.4319,0.0262855
42.8258,0.0265568
43.2197,0.0290471
43.6136,0.0219281
44.0075,0.023486
44.4014,0.0123449
44.7953,0.0211485
45.1892,0.03112
45.5831,0.0610201
45.977,0.148716
46.371,0.799424
46.7649,0.204246
47.1588,0.0686888
47.5527,0.0480196
47.9466,0.0196909
48.3405,0.016582
48.7344,0.019699
49.1283,0.0151456
49.5222,0.0286491
49.9161,0.0117246
50.31,0.0189868
50.7039,0.0283234
51.0979,0.0232297
51.4918,0.025785
51.8857,0.025955
52.2796,0.0358653
52.6735,0.00079572
53.0674,0.0
53.4613,0.0291856
53.8552,0.0317264
54.2491,0.0588639
54.643,0.232489
55.0369,0.113839
55.4309,0.0355323
55.8248,0.0386146
56.2187,0.0135636
56.6126,0.0144997
57.0065,0.0237872
57.4004,0.0199576
57.7943,0.0283677
58.1882,0.0224326
58.5821,0.0234551
58.976,0.0290938
59.3699,0.0072031
59.7638,0.0215917
60.1578,0.0300343
60.5517,0.0220708
60.9456,0.0181381
61.3395,0.0182494
61.7334,0.0304845
62.1273,0.0324386
62.5212,0.00782505
62.9151,0.0176398
63.309,0.053252
63.7029,0.0297835
64.0968,0.0274183
64.4907,0.0339027
64.8847,0.0339966
65.2786,0.0177169
65.6725,0.0220078
66.0664,0.0325031
66.4603,0.0281154
66.8542,0.0301539
67.2481,0.0212934
67.642,0.0163387
68.0359,0.0228384
68.4298,0.0347306
68.8237,0.0386687
69.2176,0.13693
69.6116,0.0517967
70.0055,0.0196991
70.3994,0.0283085
70.7933,0.0153959
71.1872,0.0178954
71.5811,0.0199718
71.975,0.0394433
72.3689,0.130029
72.7628,0.073056
73.1567,0.035104
73.5506,0.0216906
73.9445,0.0297375
74.3385,0.0776631
74.7324,0.0275302
75.1263,0.0192575
75.5202,0.0228412
75.9141,0.0282574
76.308,0.0268437
76.7019,0.0248638
77.0958,0.0249031
77.4897,0.0221324
77.8836,0.0291544
78.2775,0.0245304
78.6715,0.0144099
79.0654,0.0242072
79.4593,0.0212757
79.8532,0.0317966
80.2471,0.0276175
80.641,0.0227919
81.0349,0.0289774
81.4288,0.0323719
81.8227,0.051311
82.2166,0.10625
82.6105,0.0428065
83.0044,0.0406861
83.3984,0.0321623
83.7923,0.014607
84.1862,0.0226375
84.5801,0.0303683
84.974,0.00625012
85.3679,0.0263617
85.7618,0.0165089
86.1557,0.0265875
86.5496,0.0239936
86.9435,0.0208728
87.3374,0.0367024
87.7313,0.02087
88.1253,0.0266572
88.5192,0.0165782
88.9131,0.0286127
89.307,0.0199425
89.7009,0.0192134
90.0948,0.0215591
90.4887,0.0445899
90.8826,0.0126978
91.2765,0.0193615
91.6704,0.0297982
92.0643,0.0458586
92.4582,0.113941
92.8522,0.0757806
93.2461,0.0386933
93.64,0.0262108
94.0339,0.0246409
94.4278,0.0229713
94.8217,0.00380416
95.2156,0.0187497
95.6095,0.0278193
96.0034,0.0307763
96.3973,0.0313592
96.7912,0.0272706
97.1851,0.0274318
97.5791,0.0298716
97.973,0.021754
98.3669,0.0276774
98.7608,0.0219197
99.1547,0.00790267
99.5486,0.00798953
99.9425,0.0180038
100.336,0.0279132
100.73,0.00774925
101.124,0.0354156
101.518,0.0308397
101.912,0.0254432
102.306,0.018742
102.7,0.0238258
103.094,0.0363358
103.488,0.0485059
103.882,0.0778271
104.276,0.0700923
104.669,0.0371071
105.063,0.0292288
105.457,0.0232256
105.851,0.0237886
106.245,0.0045004
106.639,0.0275233
107.033,0.028281
107.427,0.0290498
107.821,0.0297458
108.215,0.0221242
108.608,0.022499
109.002,0.0401255
109.396,0.0186295
109.79,0.0259188
110.184,0.0258757
110.578,0.0349465
110.972,0.0226316
111.366,0.0284531
111.76,0.0284447
112.154,0.0257739
112.548,0.0348925
112.941,0.0225696
113.335,0.0282253
113.729,0.0251431
114.123,0.0336721
114.517,0.0235318
114.911,0.0147889
115.305,0.0175651
115.699,0.0353376
116.093,0.0372278
116.487,0.03649
116.881,0.0669815
117.274,0.0868765
117.668,0.0528679
118.062,0.0304768
118.456,0.032836
118.85,0.0195605
119.244,0.01346
119.638,0.03125
119.992,0.0261836