File: SIBC StrucMag/processed_XRD_spectra/Fu21Gd-SM1c_processed.csv
Angle,Intensity
5.01057,0.029663
5.40447,0.0413833
5.79838,0.0347898
6.19229,0.0313776
6.5862,0.040736
6.98011,0.0476411
7.37402,0.0339275
7.76792,0.056598
8.16183,0.0291121
8.55574,0.0365077
8.94965,0.0369805
9.34356,0.032617
9.73747,0.0411427
10.1314,0.0457913
10.5253,0.0393116
10.9192,0.0429011
11.3131,0.0495475
11.707,0.0276959
12.1009,0.0375729
12.4948,0.0297521
12.8887,0.0306507
13.2826,0.0314927
13.6766,0.0437542
14.0705,0.0406119
14.4644,0.0386196
14.8583,0.0379929
15.2522,0.0417906
15.6461,0.0397406
16.04,0.0340732
16.4339,0.0365222
16.8278,0.0336026
17.2217,0.0393523
17.6156,0.034725
18.0095,0.0313796
18.4035,0.0319421
18.7974,0.036395
19.1913,0.0260329
19.5852,0.0424739
19.9791,0.0425951
20.373,0.0332204
20.7669,0.0363864
21.1608,0.0293919
21.5547,0.0345429
21.9486,0.0298563
22.3425,0.0653811
22.7364,0.795121
23.1304,0.100953
23.5243,0.0506654
23.9182,0.0444437
24.3121,0.0406517
24.706,0.041545
25.0999,0.0274957
25.4938,0.0405716
25.8877,0.0364255
26.2816,0.033603
26.6755,0.0505083
27.0694,0.0376457
27.4633,0.0217001
27.8573,0.0424606
28.2512,0.0386534
28.6451,0.038528
29.039,0.0474615
29.4329,0.0312895
29.8268,0.033669
30.2207,0.0380251
30.6146,0.0486836
31.0085,0.0335933
31.4024,0.0359878
31.7963,0.016899
32.1903,0.0257116
32.5842,0.0388647
32.9781,0.217129
33.372,0.0471678
33.7659,0.0402567
34.1598,0.0194374
34.5537,0.0414462
34.9476,0.037636
35.3415,0.0354328
35.7354,0.0320737
36.1293,0.0365552
36.5232,0.0357712
36.9172,0.0452155
37.3111,0.0389285
37.705,0.0476192
38.0989,0.214889
38.4928,0.241041
38.8867,0.0685169
39.2806,0.0369281
39.6745,0.0397259
40.0684,0.0361006
40.4623,0.0345004
40.8562,0.0375696
41.2501,0.0391575
41.6441,0.0418345
42.038,0.035655
42.4319,0.0443495
42.8258,0.0448878
43.2197,0.0493659
43.6136,0.0469492
44.0075,0.042034
44.4014,0.0342113
44.7953,0.0411591
45.1892,0.0538724
45.5831,0.0655567
45.977,0.18597
46.371,0.960126
46.7649,0.181889
47.1588,0.0759425
47.5527,0.0528237
47.9466,0.0348217
48.3405,0.0361999
48.7344,0.0463436
49.1283,0.0461861
49.5222,0.0370484
49.9161,0.0387502
50.31,0.0400074
50.7039,0.0492167
51.0979,0.045874
51.4918,0.0248653
51.8857,0.0460975
52.2796,0.0291832
52.6735,0.0381878
53.0674,0.0315698
53.4613,0.0368382
53.8552,0.0569957
54.2491,0.0781301
54.643,0.280757
55.0369,0.109996
55.4309,0.0542302
55.8248,0.0228154
56.2187,0.0470962
56.6126,0.039199
57.0065,0.0403575
57.4004,0.0388082
57.7943,0.0425371
58.1882,0.0502048
58.5821,0.0380152
58.976,0.0386265
59.3699,0.0423652
59.7638,0.0504931
60.1578,0.0317087
60.5517,0.0319898
60.9456,0.0513233
61.3395,0.0406379
61.7334,0.0490453
62.1273,0.0406719
62.5212,0.036989
62.9151,0.0370417
63.309,0.0593725
63.7029,0.0409103
64.0968,0.0409973
64.4907,0.0373399
64.8847,0.0207876
65.2786,0.051644
65.6725,0.0370524
66.0664,0.043678
66.4603,0.0365594
66.8542,0.0196206
67.2481,0.0473345
67.642,0.0341838
68.0359,0.0166323
68.4298,0.0322334
68.8237,0.0434684
69.2176,0.140581
69.6116,0.0570669
70.0055,0.0360451
70.3994,0.0237764
70.7933,0.0521128
71.1872,0.0228442
71.5811,0.0394463
71.975,0.0628414
72.3689,0.150278
72.7628,0.0764992
73.1567,0.0474144
73.5506,0.0368387
73.9445,0.0499038
74.3385,0.0847423
74.7324,0.0357709
75.1263,0.0418487
75.5202,0.0427525
75.9141,0.0501534
76.308,0.0276514
76.7019,0.0398805
77.0958,0.043062
77.4897,0.0434015
77.8836,0.0408938
78.2775,0.0438101
78.6715,0.0378829
79.0654,0.0406497
79.4593,0.0400231
79.8532,0.0467215
80.2471,0.0315044
80.641,0.0429139
81.0349,0.0423441
81.4288,0.050279
81.8227,0.0792466
82.2166,0.11022
82.6105,0.0501726
83.0044,0.036899
83.3984,0.0401415
83.7923,0.0262795
84.1862,0.0318177
84.5801,0.0469712
84.974,0.0428679
85.3679,0.0337977
85.7618,0.0546392
86.1557,0.0488915
86.5496,0.0298533
86.9435,0.0182432
87.3374,0.0385088
87.7313,0.0415243
88.1253,0.0179077
88.5192,0.0341543
88.9131,0.0374016
89.307,0.0367705
89.7009,0.0390834
90.0948,0.0313617
90.4887,0.047062
90.8826,0.0393425
91.2765,0.0386594
91.6704,0.0429148
92.0643,0.0701038
92.4582,0.13909
92.8522,0.0711576
93.2461,0.0468607
93.64,0.0431803
94.0339,0.0438203
94.4278,0.0301923
94.8217,0.0454958
95.2156,0.0388991
95.6095,0.0367247
96.0034,0.0407209
96.3973,0.0382912
96.7912,0.0471875
97.1851,0.0422826
97.5791,0.035672
97.973,0.042691
98.3669,0.0311336
98.7608,0.0361175
99.1547,0.0458454
99.5486,0.0458537
99.9425,0.039812
100.336,0.045401
100.73,0.0187225
101.124,0.0384053
101.518,0.0377264
101.912,0.0331454
102.306,0.0391661
102.7,0.0315628
103.094,0.0430585
103.488,0.0649462
103.882,0.101239
104.276,0.0797963
104.669,0.0559253
105.063,0.0450214
105.457,0.0348329
105.851,0.0386223
106.245,0.0393952
106.639,0.028552
107.033,0.0380289
107.427,0.0352142
107.821,0.0194835
108.215,0.0404335
108.608,0.0469388
109.002,0.032907
109.396,0.0416947
109.79,0.0214827
110.184,0.0416691
110.578,0.0212662
110.972,0.0328345
111.366,0.0412744
111.76,0.0495524
112.154,0.0494433
112.548,0.0440789
112.941,0.0514757
113.335,0.0201123
113.729,0.0192302
114.123,0.0414158
114.517,0.0281841
114.911,0.0149803
115.305,0.0338286
115.699,0.0325387
116.093,0.0564793
116.487,0.0651469
116.881,0.0906772
117.274,0.102817
117.668,0.0731456
118.062,0.0496748
118.456,0.0297015
118.85,0.0360641
119.244,0.0307511
119.638,0.0462347
119.992,0.040198