File: SIBC StrucMag/processed_XRD_spectra/SP11-SM3b_processed.csv
Angle,Intensity
5.01057,0.0887183
5.40447,0.0914213
5.79838,0.10228
6.19229,0.0899687
6.5862,0.0812397
6.98011,0.10168
7.37402,0.127848
7.76792,0.0961833
8.16183,0.0720574
8.55574,0.0567993
8.94965,0.079222
9.34356,0.0471735
9.73747,0.0787933
10.1314,0.0993724
10.5253,0.0651471
10.9192,0.110202
11.3131,0.092385
11.707,0.0603524
12.1009,0.0594678
12.4948,0.0674596
12.8887,0.0806852
13.2826,0.105214
13.6766,0.0765942
14.0705,0.0604642
14.4644,0.0594115
14.8583,0.0917608
15.2522,0.0969021
15.6461,0.082685
16.04,0.0660518
16.4339,0.0850291
16.8278,0.0714965
17.2217,0.0934479
17.6156,0.101713
18.0095,0.071493
18.4035,0.0805536
18.7974,0.0670814
19.1913,0.0756861
19.5852,0.0796861
19.9791,0.0899253
20.373,0.0957338
20.7669,0.0482827
21.1608,0.0924614
21.5547,0.0626726
21.9486,0.06907
22.3425,0.174493
22.7364,0.620594
23.1304,0.206917
23.5243,0.124738
23.9182,0.0809646
24.3121,0.0959245
24.706,0.0955108
25.0999,0.098625
25.4938,0.0739119
25.8877,0.0691197
26.2816,0.085145
26.6755,0.0759096
27.0694,0.0735588
27.4633,0.0654556
27.8573,0.0670608
28.2512,0.0872657
28.6451,0.10051
29.039,0.0856089
29.4329,0.099036
29.8268,0.0725511
30.2207,0.0822203
30.6146,0.134838
31.0085,0.0814398
31.4024,0.0658053
31.7963,0.0898965
32.1903,0.0656971
32.5842,0.0713389
32.9781,0.105899
33.372,0.0771112
33.7659,0.0953252
34.1598,0.067474
34.5537,0.0733766
34.9476,0.0834755
35.3415,0.0835327
35.7354,0.0681852
36.1293,0.0393847
36.5232,0.0560172
36.9172,0.0690729
37.3111,0.089775
37.705,0.103292
38.0989,0.257004
38.4928,0.419285
38.8867,0.108906
39.2806,0.0945187
39.6745,0.0924651
40.0684,0.0441722
40.4623,0.0906032
40.8562,0.0889339
41.2501,0.0743398
41.6441,0.0925856
42.038,0.102604
42.4319,0.134104
42.8258,0.220487
43.2197,0.165837
43.6136,0.149116
44.0075,0.073149
44.4014,0.0480838
44.7953,0.0871422
45.1892,0.0771413
45.5831,0.192923
45.977,0.210566
46.371,0.987632
46.7649,0.234759
47.1588,0.114561
47.5527,0.0925889
47.9466,0.0830223
48.3405,0.0817746
48.7344,0.0700298
49.1283,0.0738812
49.5222,0.071871
49.9161,0.0813959
50.31,0.0784583
50.7039,0.133427
51.0979,0.108235
51.4918,0.0604357
51.8857,0.117784
52.2796,0.0692947
52.6735,0.0947479
53.0674,0.0833871
53.4613,0.0607366
53.8552,0.105608
54.2491,0.127223
54.643,0.352047
55.0369,0.133695
55.4309,0.124148
55.8248,0.0919839
56.2187,0.0802442
56.6126,0.0738423
57.0065,0.0647932
57.4004,0.0873068
57.7943,0.0406358
58.1882,0.0814849
58.5821,0.0709091
58.976,0.0435443
59.3699,0.106179
59.7638,0.083122
60.1578,0.0991566
60.5517,0.0824066
60.9456,0.0820165
61.3395,0.0905352
61.7334,0.0697875
62.1273,0.0900068
62.5212,0.0694289
62.9151,0.0693972
63.309,0.0973919
63.7029,0.0696102
64.0968,0.0813748
64.4907,0.0903865
64.8847,0.097694
65.2786,0.0897505
65.6725,0.103341
66.0664,0.0799603
66.4603,0.102568
66.8542,0.079366
67.2481,0.102169
67.642,0.0675848
68.0359,0.079159
68.4298,0.102157
68.8237,0.0676078
69.2176,0.0668864
69.6116,0.0859035
70.0055,0.0630733
70.3994,0.0721782
70.7933,0.092772
71.1872,0.0764963
71.5811,0.0885997
71.975,0.0803142
72.3689,0.127589
72.7628,0.101074
73.1567,0.0609382
73.5506,0.083618
73.9445,0.0771257
74.3385,0.315979
74.7324,0.123219
75.1263,0.0860341
75.5202,0.0872995
75.9141,0.0541761
76.308,0.0901562
76.7019,0.0291348
77.0958,0.0926214
77.4897,0.0994358
77.8836,0.0941994
78.2775,0.0807203
78.6715,0.0326766
79.0654,0.106455
79.4593,0.0320135
79.8532,0.0935142
80.2471,0.0985289
80.641,0.0976793
81.0349,0.0285718
81.4288,0.111863
81.8227,0.0962249
82.2166,0.101695
82.6105,0.0838993
83.0044,0.0969321
83.3984,0.0916619
83.7923,0.0859296
84.1862,0.0589803
84.5801,0.0715903
84.974,0.0725725
85.3679,0.0734187
85.7618,0.096846
86.1557,0.0904235
86.5496,0.082846
86.9435,0.0737044
87.3374,0.073375
87.7313,0.0334867
88.1253,0.0887864
88.5192,0.0599985
88.9131,0.0993595
89.307,0.0854981
89.7009,0.0908013
90.0948,0.106112
90.4887,0.156974
90.8826,0.0644601
91.2765,0.0636075
91.6704,0.116078
92.0643,0.0968979
92.4582,0.144533
92.8522,0.130993
93.2461,0.0714693
93.64,0.107378
94.0339,0.103287
94.4278,0.0735402
94.8217,0.0945824
95.2156,0.101167
95.6095,0.0768062
96.0034,0.0779389
96.3973,0.070144
96.7912,0.0941595
97.1851,0.101175
97.5791,0.0617155
97.973,0.0905736
98.3669,0.0634984
98.7608,0.0847746
99.1547,0.105632
99.5486,0.121802
99.9425,0.038699
100.336,0.0948404
100.73,0.0945706
101.124,0.100393
101.518,0.0928272
101.912,0.0985011
102.306,0.0631691
102.7,0.102994
103.094,0.0824865
103.488,0.0963045
103.882,0.0896768
104.276,0.117793
104.669,0.0827756
105.063,0.090834
105.457,0.0840684
105.851,0.120294
106.245,0.0857514
106.639,0.0777039
107.033,0.0872434
107.427,0.101868
107.821,0.0676268
108.215,0.0792288
108.608,0.0954125
109.002,0.0952021
109.396,0.101599
109.79,0.0784685
110.184,0.0871901
110.578,0.0870549
110.972,0.106972
111.366,0.100898
111.76,0.0866777
112.154,0.100497
112.548,0.0771602
112.941,0.0372145
113.335,0.110656
113.729,0.0987668
114.123,0.084247
114.517,0.0978697
114.911,0.0972657
115.305,0.0340012
115.699,0.101405
116.093,0.0803592
116.487,0.0589597
116.881,0.092616
117.274,0.147909
117.668,0.102695
118.062,0.107316
118.456,0.0904086
118.85,0.0960912
119.244,0.0757787
119.638,0.0544477
119.992,0.0800268