File: SIBC StrucMag/processed_XRD_spectra/SP11-SM3a_processed.csv
Angle,Intensity
5.01057,0.040405
5.40447,0.060984
5.79838,0.0478018
6.19229,0.0478733
6.5862,0.0566206
6.98011,0.0375799
7.37402,0.0806956
7.76792,0.0299918
8.16183,0.0418454
8.55574,0.0476368
8.94965,0.0519132
9.34356,0.0425234
9.73747,0.0784544
10.1314,0.0453445
10.5253,0.0376992
10.9192,0.0331757
11.3131,0.0493985
11.707,0.0634247
12.1009,0.0563757
12.4948,0.0560467
12.8887,0.0455944
13.2826,0.0624906
13.6766,0.0484252
14.0705,0.0653506
14.4644,0.0574763
14.8583,0.0904698
15.2522,0.0698301
15.6461,0.0492061
16.04,0.0349841
16.4339,0.0568621
16.8278,0.0380525
17.2217,0.0478326
17.6156,0.0564243
18.0095,0.0575245
18.4035,0.0561658
18.7974,0.0405365
19.1913,0.0441511
19.5852,0.055358
19.9791,0.0344445
20.373,0.0301443
20.7669,0.0396896
21.1608,0.0413221
21.5547,0.0457039
21.9486,0.0522577
22.3425,0.123821
22.7364,0.244671
23.1304,0.0975006
23.5243,0.0824759
23.9182,0.0650129
24.3121,0.0395006
24.706,0.0675873
25.0999,0.0396319
25.4938,0.0581438
25.8877,0.0437719
26.2816,0.0425411
26.6755,0.0641438
27.0694,0.0491065
27.4633,0.0471421
27.8573,0.0516506
28.2512,0.0558718
28.6451,0.0678223
29.039,0.0395846
29.4329,0.055092
29.8268,0.0295078
30.2207,0.0686825
30.6146,0.070571
31.0085,0.0747114
31.4024,0.0671244
31.7963,0.0494135
32.1903,0.0585087
32.5842,0.0554374
32.9781,0.0489931
33.372,0.0688534
33.7659,0.0374624
34.1598,0.0195176
34.5537,0.0328365
34.9476,0.055648
35.3415,0.0488397
35.7354,0.0605996
36.1293,0.0446458
36.5232,0.0544929
36.9172,0.0446641
37.3111,0.0634332
37.705,0.0715937
38.0989,0.298731
38.4928,0.225689
38.8867,0.0946764
39.2806,0.0486774
39.6745,0.0510058
40.0684,0.0568571
40.4623,0.0485225
40.8562,0.0360166
41.2501,0.059056
41.6441,0.0566054
42.038,0.0603305
42.4319,0.12759
42.8258,0.137956
43.2197,0.114469
43.6136,0.0467695
44.0075,0.0382607
44.4014,0.054569
44.7953,0.0498409
45.1892,0.058124
45.5831,0.150494
45.977,0.188924
46.371,0.761627
46.7649,0.152879
47.1588,0.0617385
47.5527,0.0735522
47.9466,0.0583925
48.3405,0.0556905
48.7344,0.0398371
49.1283,0.0383406
49.5222,0.0
49.9161,0.052967
50.31,0.0577568
50.7039,0.0562889
51.0979,0.0246226
51.4918,0.0435993
51.8857,0.0440481
52.2796,0.052228
52.6735,0.0649115
53.0674,0.0554108
53.4613,0.0675235
53.8552,0.0619631
54.2491,0.107149
54.643,0.349936
55.0369,0.0796823
55.4309,0.0107962
55.8248,0.0600282
56.2187,0.0616301
56.6126,0.0468621
57.0065,0.0535412
57.4004,0.0370246
57.7943,0.0382078
58.1882,0.0466325
58.5821,0.0578594
58.976,0.0534234
59.3699,0.0478704
59.7638,0.0223371
60.1578,0.0404431
60.5517,0.0537066
60.9456,0.022415
61.3395,0.0586088
61.7334,0.0585715
62.1273,0.0221682
62.5212,0.021807
62.9151,0.02139
63.309,0.0688343
63.7029,0.0461999
64.0968,0.0714542
64.4907,0.0562055
64.8847,0.0676645
65.2786,0.0639406
65.6725,0.0450769
66.0664,0.0449502
66.4603,0.0635153
66.8542,0.0551674
67.2481,0.0187231
67.642,0.0662645
68.0359,0.0542547
68.4298,0.0538325
68.8237,0.0352173
69.2176,0.0675652
69.6116,0.0335728
70.0055,0.054386
70.3994,0.0434918
70.7933,0.0646086
71.1872,0.0529592
71.5811,0.0583043
71.975,0.0601471
72.3689,0.186668
72.7628,0.0891278
73.1567,0.0612318
73.5506,0.0693592
73.9445,0.0986042
74.3385,0.159975
74.7324,0.0509141
75.1263,0.0336082
75.5202,0.0500982
75.9141,0.0427614
76.308,0.0644337
76.7019,0.0403176
77.0958,0.056116
77.4897,0.0338668
77.8836,0.0334344
78.2775,0.0459509
78.6715,0.0580942
79.0654,0.0442728
79.4593,0.0376961
79.8532,0.0369146
80.2471,0.0549368
80.641,0.0579078
81.0349,0.0574875
81.4288,0.0572572
81.8227,0.0922649
82.2166,0.116591
82.6105,0.064303
83.0044,0.0618637
83.3984,0.0371511
83.7923,0.0530379
84.1862,0.0393242
84.5801,0.046293
84.974,0.0522871
85.3679,0.0483214
85.7618,0.0617476
86.1557,0.0719691
86.5496,0.0359793
86.9435,0.0541589
87.3374,0.0492943
87.7313,0.0581765
88.1253,0.035273
88.5192,0.0477301
88.9131,0.0467622
89.307,0.0457552
89.7009,0.0810924
90.0948,0.0847673
90.4887,0.0625826
90.8826,0.0545746
91.2765,0.0531932
91.6704,0.0586834
92.0643,0.0786585
92.4582,0.189758
92.8522,0.0792111
93.2461,0.066922
93.64,0.0668829
94.0339,0.0488218
94.4278,0.0412795
94.8217,0.0502539
95.2156,0.0548611
95.6095,0.0395561
96.0034,0.0095599
96.3973,0.0422631
96.7912,0.0436053
97.1851,0.0391091
97.5791,0.0590266
97.973,0.0339547
98.3669,0.0611335
98.7608,0.0356891
99.1547,0.0181868
99.5486,0.0498641
99.9425,0.0499946
100.336,0.0588179
100.73,0.0616929
101.124,0.0566927
101.518,0.0556076
101.912,0.0503601
102.306,0.0495323
102.7,0.0440477
103.094,0.0527399
103.488,0.063266
103.882,0.116057
104.276,0.089196
104.669,0.0572908
105.063,0.0498771
105.457,0.0507486
105.851,0.0517343
106.245,0.0421935
106.639,0.0432212
107.033,0.0498618
107.427,0.0506338
107.821,0.0642708
108.215,0.0517641
108.608,0.0206126
109.002,0.0461312
109.396,0.0383865
109.79,0.0561463
110.184,0.0639718
110.578,0.0449826
110.972,0.0372675
111.366,0.059442
111.76,0.03696
112.154,0.0501093
112.548,0.0759172
112.941,0.0187012
113.335,0.0548447
113.729,0.0499508
114.123,0.0545403
114.517,0.0432208
114.911,0.052756
115.305,0.0559084
115.699,0.0622716
116.093,0.0390763
116.487,0.0489189
116.881,0.102626
117.274,0.120391
117.668,0.0863462
118.062,0.0661512
118.456,0.0664543
118.85,0.0569638
119.244,0.0388239
119.638,0.0452127
119.992,0.0546514