File: SIBC StrucMag/processed_XRD_spectra/SP11-SM3c_processed.csv
Angle,Intensity
5.01057,0.137317
5.40447,0.163672
5.79838,0.100907
6.19229,0.107691
6.5862,0.168173
6.98011,0.139674
7.37402,0.136954
7.76792,0.175146
8.16183,0.140634
8.55574,0.147275
8.94965,0.216096
9.34356,0.145478
9.73747,0.175983
10.1314,0.141909
10.5253,0.09556
10.9192,0.163535
11.3131,0.125083
11.707,0.208827
12.1009,0.124015
12.4948,0.169665
12.8887,0.152203
13.2826,0.184579
13.6766,0.155403
14.0705,0.165474
14.4644,0.192075
14.8583,0.168118
15.2522,0.134354
15.6461,0.15855
16.04,0.198732
16.4339,0.186093
16.8278,0.107426
17.2217,0.103555
17.6156,0.147685
18.0095,0.120668
18.4035,0.169901
18.7974,0.101727
19.1913,0.10573
19.5852,0.136546
19.9791,0.112659
20.373,0.139842
20.7669,0.130375
21.1608,0.10118
21.5547,0.1613
21.9486,0.153592
22.3425,0.260171
22.7364,0.574252
23.1304,0.247196
23.5243,0.181977
23.9182,0.163211
24.3121,0.174907
24.706,0.14723
25.0999,0.113339
25.4938,0.107299
25.8877,0.162989
26.2816,0.138928
26.6755,0.170773
27.0694,0.110807
27.4633,0.0994756
27.8573,0.19505
28.2512,0.162197
28.6451,0.132555
29.039,0.134899
29.4329,0.124767
29.8268,0.150291
30.2207,0.207142
30.6146,0.182047
31.0085,0.200204
31.4024,0.141972
31.7963,0.193154
32.1903,0.194082
32.5842,0.103066
32.9781,0.157231
33.372,0.178852
33.7659,0.158997
34.1598,0.106253
34.5537,0.147935
34.9476,0.179425
35.3415,0.120578
35.7354,0.104197
36.1293,0.119085
36.5232,0.103092
36.9172,0.203623
37.3111,0.145051
37.705,0.157329
38.0989,0.222426
38.4928,0.489602
38.8867,0.234622
39.2806,0.154964
39.6745,0.0982002
40.0684,0.135727
40.4623,0.150907
40.8562,0.10165
41.2501,0.116325
41.6441,0.154198
42.038,0.150649
42.4319,0.169468
42.8258,0.400621
43.2197,0.239536
43.6136,0.321435
44.0075,0.170449
44.4014,0.158261
44.7953,0.16566
45.1892,0.153497
45.5831,0.240846
45.977,0.305094
46.371,0.972954
46.7649,0.317023
47.1588,0.207999
47.5527,0.158069
47.9466,0.214998
48.3405,0.185825
48.7344,0.160722
49.1283,0.176476
49.5222,0.191507
49.9161,0.151057
50.31,0.125158
50.7039,0.201887
51.0979,0.172813
51.4918,0.115305
51.8857,0.165064
52.2796,0.118442
52.6735,0.152876
53.0674,0.119219
53.4613,0.138196
53.8552,0.212595
54.2491,0.193066
54.643,0.374456
55.0369,0.196195
55.4309,0.186866
55.8248,0.163115
56.2187,0.107608
56.6126,0.168418
57.0065,0.171163
57.4004,0.173685
57.7943,0.141978
58.1882,0.178307
58.5821,0.122525
58.976,0.230992
59.3699,0.150774
59.7638,0.170221
60.1578,0.186109
60.5517,0.199434
60.9456,0.198688
61.3395,0.0680879
61.7334,0.149588
62.1273,0.167492
62.5212,0.208708
62.9151,0.182242
63.309,0.219487
63.7029,0.123696
64.0968,0.166071
64.4907,0.181494
64.8847,0.207356
65.2786,0.180928
65.6725,0.122524
66.0664,0.228435
66.4603,0.0638683
66.8542,0.179796
67.2481,0.145541
67.642,0.19304
68.0359,0.0628405
68.4298,0.163011
68.8237,0.177911
69.2176,0.161497
69.6116,0.141952
70.0055,0.174622
70.3994,0.172957
70.7933,0.112534
71.1872,0.167065
71.5811,0.200897
71.975,0.173689
72.3689,0.215066
72.7628,0.180625
73.1567,0.152678
73.5506,0.135968
73.9445,0.301124
74.3385,0.644457
74.7324,0.295992
75.1263,0.180103
75.5202,0.140549
75.9141,0.124603
76.308,0.17511
76.7019,0.1057
77.0958,0.130461
77.4897,0.148929
77.8836,0.106138
78.2775,0.129991
78.6715,0.190028
79.0654,0.212073
79.4593,0.164123
79.8532,0.190518
80.2471,0.178479
80.641,0.2326
81.0349,0.149503
81.4288,0.1493
81.8227,0.130664
82.2166,0.178288
82.6105,0.202045
83.0044,0.106494
83.3984,0.149147
83.7923,0.191032
84.1862,0.202715
84.5801,0.107462
84.974,0.165943
85.3679,0.150817
85.7618,0.151292
86.1557,0.133339
86.5496,0.181618
86.9435,0.110383
87.3374,0.153486
87.7313,0.183307
88.1253,0.111499
88.5192,0.18243
88.9131,0.167458
89.307,0.166285
89.7009,0.19139
90.0948,0.222581
90.4887,0.343958
90.8826,0.148057
91.2765,0.129452
91.6704,0.177156
92.0643,0.177058
92.4582,0.200263
92.8522,0.188231
93.2461,0.175359
93.64,0.127395
94.0339,0.187616
94.4278,0.199441
94.8217,0.176406
95.2156,0.163762
95.6095,0.191189
96.0034,0.166571
96.3973,0.152582
96.7912,0.169679
97.1851,0.184275
97.5791,0.112953
97.973,0.137395
98.3669,0.156275
98.7608,0.172321
99.1547,0.172883
99.5486,0.173527
99.9425,0.116153
100.336,0.159432
100.73,0.141674
101.124,0.117914
101.518,0.189583
101.912,0.201602
102.306,0.159575
102.7,0.200947
103.094,0.159044
103.488,0.140437
103.882,0.11632
104.276,0.158872
104.669,0.17454
105.063,0.200808
105.457,0.140861
105.851,0.140981
106.245,0.116906
106.639,0.174793
107.033,0.140433
107.427,0.15855
107.821,0.1738
108.215,0.157969
108.608,0.221456
109.002,0.17322
109.396,0.186916
109.79,0.187009
110.184,0.187216
110.578,0.0576501
110.972,0.116162
111.366,0.200872
111.76,0.175343
112.154,0.160399
112.548,0.202677
112.941,0.176956
113.335,0.143008
113.729,0.176668
114.123,0.0597678
114.517,0.159535
114.911,0.0580479
115.305,0.139267
115.699,0.138268
116.093,0.137295
116.487,0.184113
116.881,0.183264
117.274,0.216903
117.668,0.152526
118.062,0.181171
118.456,0.15128
118.85,0.107561
119.244,0.147413
119.638,0.0405762
119.992,0.130026