File: DPhil-projects/SIBC StrucMag/processed_XRD_spectra/Fu21Gd-SM1b_processed.csv
Angle,Intensity
5.01057,0.0445213
5.40447,0.0535663
5.79838,0.0585082
6.19229,0.0569651
6.5862,0.0567101
6.98011,0.0578239
7.37402,0.0864216
7.76792,0.0746742
8.16183,0.0508647
8.55574,0.0561499
8.94965,0.0469239
9.34356,0.0467868
9.73747,0.0683391
10.1314,0.0712239
10.5253,0.0459961
10.9192,0.0543966
11.3131,0.0591854
11.707,0.0699975
12.1009,0.0654011
12.4948,0.0441438
12.8887,0.0568503
13.2826,0.0668192
13.6766,0.0507508
14.0705,0.0561324
14.4644,0.043664
14.8583,0.0452933
15.2522,0.0491011
15.6461,0.0440899
16.04,0.0301842
16.4339,0.0374374
16.8278,0.0618346
17.2217,0.0457447
17.6156,0.0446836
18.0095,0.0534025
18.4035,0.0591859
18.7974,0.0535168
19.1913,0.0521692
19.5852,0.0478182
19.9791,0.0624989
20.373,0.0600097
20.7669,0.0522573
21.1608,0.0406257
21.5547,0.059906
21.9486,0.0592454
22.3425,0.0945229
22.7364,0.637203
23.1304,0.116548
23.5243,0.0888772
23.9182,0.0665757
24.3121,0.0570004
24.706,0.0562065
25.0999,0.0448264
25.4938,0.0647152
25.8877,0.0597833
26.2816,0.0339252
26.6755,0.0584104
27.0694,0.0569595
27.4633,0.0658072
27.8573,0.0528857
28.2512,0.0505432
28.6451,0.0575558
29.039,0.0450266
29.4329,0.0415489
29.8268,0.0458006
30.2207,0.0647549
30.6146,0.0722716
31.0085,0.0493728
31.4024,0.055898
31.7963,0.0558871
32.1903,0.0671962
32.5842,0.0698557
32.9781,0.266647
33.372,0.0678262
33.7659,0.0569298
34.1598,0.0278679
34.5537,0.0475585
34.9476,0.0641142
35.3415,0.0551424
35.7354,0.0609556
36.1293,0.0541907
36.5232,0.0536525
36.9172,0.0378272
37.3111,0.0699427
37.705,0.0792172
38.0989,0.262122
38.4928,0.261296
38.8867,0.0890388
39.2806,0.0586642
39.6745,0.0533483
40.0684,0.0581664
40.4623,0.0255914
40.8562,0.0634032
41.2501,0.0591816
41.6441,0.056606
42.038,0.0534738
42.4319,0.0347981
42.8258,0.0501386
43.2197,0.0607639
43.6136,0.0601943
44.0075,0.0574099
44.4014,0.0618135
44.7953,0.0479239
45.1892,0.0625089
45.5831,0.109919
45.977,0.238519
46.371,0.978092
46.7649,0.221855
47.1588,0.111101
47.5527,0.0722986
47.9466,0.0501414
48.3405,0.0480894
48.7344,0.0227484
49.1283,0.0422101
49.5222,0.0416196
49.9161,0.0531769
50.31,0.051776
50.7039,0.0675565
51.0979,0.0583014
51.4918,0.0454913
51.8857,0.0133396
52.2796,0.0542948
52.6735,0.0532879
53.0674,0.0370196
53.4613,0.0656478
53.8552,0.0548052
54.2491,0.114117
54.643,0.316129
55.0369,0.128453
55.4309,0.0772391
55.8248,0.0568735
56.2187,0.0685158
56.6126,0.063563
57.0065,0.0533391
57.4004,0.0635412
57.7943,0.0568505
58.1882,0.0210496
58.5821,0.0713475
58.976,0.0602103
59.3699,0.0557912
59.7638,0.0425416
60.1578,0.0614068
60.5517,0.0659859
60.9456,0.0566996
61.3395,0.0660384
61.7334,0.0506461
62.1273,0.0504639
62.5212,0.0611847
62.9151,0.0238737
63.309,0.069305
63.7029,0.0500103
64.0968,0.0762893
64.4907,0.0609228
64.8847,0.079572
65.2786,0.0764621
65.6725,0.0425565
66.0664,0.0502773
66.4603,0.0730506
66.8542,0.0691113
67.2481,0.0231237
67.642,0.0635496
68.0359,0.0578455
68.4298,0.060957
68.8237,0.0707538
69.2176,0.192394
69.6116,0.085531
70.0055,0.0471992
70.3994,0.0141066
70.7933,0.0395801
71.1872,0.0447749
71.5811,0.0677514
71.975,0.0785646
72.3689,0.159979
72.7628,0.109569
73.1567,0.0783791
73.5506,0.0609053
73.9445,0.0578361
74.3385,0.143192
74.7324,0.0595586
75.1263,0.0522919
75.5202,0.068883
75.9141,0.0361556
76.308,0.050957
76.7019,0.0456888
77.0958,0.0690465
77.4897,0.0388703
77.8836,0.0662124
78.2775,0.0581792
78.6715,0.0472561
79.0654,0.0389541
79.4593,0.0648294
79.8532,0.0598357
80.2471,0.0436508
80.641,0.0538052
81.0349,0.0616466
81.4288,0.0716181
81.8227,0.106924
82.2166,0.122921
82.6105,0.0692571
83.0044,0.0762285
83.3984,0.0599605
83.7923,0.0686414
84.1862,0.0526973
84.5801,0.047507
84.974,0.0629835
85.3679,0.0706588
85.7618,0.0537343
86.1557,0.0631714
86.5496,0.0538845
86.9435,0.0589574
87.3374,0.0218828
87.7313,0.0675006
88.1253,0.0482303
88.5192,0.0539421
88.9131,0.0667912
89.307,0.0467537
89.7009,0.0513999
90.0948,0.07053
90.4887,0.0934233
90.8826,0.0479365
91.2765,0.0564343
91.6704,0.0758623
92.0643,0.100984
92.4582,0.134109
92.8522,0.0989385
93.2461,0.0512993
93.64,0.0562787
94.0339,0.0610295
94.4278,0.0579946
94.8217,0.0546386
95.2156,0.0507435
95.6095,0.0196274
96.0034,0.0205394
96.3973,0.058514
96.7912,0.0541696
97.1851,0.041036
97.5791,0.0491082
97.973,0.0553597
98.3669,0.0690281
98.7608,0.0424099
99.1547,0.042699
99.5486,0.0565347
99.9425,0.0430163
100.336,0.0614364
100.73,0.0559141
101.124,0.0488931
101.518,0.0738856
101.912,0.0572134
102.306,0.0714428
102.7,0.0704318
103.094,0.0356373
103.488,0.0884643
103.882,0.109097
104.276,0.103294
104.669,0.0833425
105.063,0.0430683
105.457,0.0546273
105.851,0.0368886
106.245,0.0564611
106.639,0.0389549
107.033,0.0215058
107.427,0.0598356
107.821,0.0500045
108.215,0.070122
108.608,0.0252038
109.002,0.0442422
109.396,0.0523197
109.79,0.0449297
110.184,0.0266209
110.578,0.0684456
110.972,0.0592655
111.366,0.0593451
111.76,0.0534044
112.154,0.0590755
112.548,0.052742
112.941,0.0712786
113.335,0.0619329
113.729,0.0557323
114.123,0.0483669
114.517,0.0525316
114.911,0.050799
115.305,0.0695671
115.699,0.0341682
116.093,0.0559613
116.487,0.0986697
116.881,0.10008
117.274,0.128706
117.668,0.0846685
118.062,0.0655992
118.456,0.0322113
118.85,0.083961
119.244,0.067898
119.638,0.0531719
119.992,0.0479744