File: DPhil-projects/SIBC StrucMag/processed_XRD_spectra/SuNAM21Gd-SM2c_processed.csv
Angle,Intensity
5.01057,0.0563428
5.40447,0.0595007
5.79838,0.0452047
6.19229,0.0855113
6.5862,0.0718229
6.98011,0.128873
7.37402,0.200428
7.76792,0.0985864
8.16183,0.0294639
8.55574,0.0466542
8.94965,0.033961
9.34356,0.0745828
9.73747,0.0485064
10.1314,0.0527832
10.5253,0.0673929
10.9192,0.0808582
11.3131,0.0492012
11.707,0.051045
12.1009,0.0643562
12.4948,0.0594759
12.8887,0.0702572
13.2826,0.0484189
13.6766,0.0823719
14.0705,0.0623639
14.4644,0.0735665
14.8583,0.0921704
15.2522,0.0657872
15.6461,0.0487918
16.04,0.071952
16.4339,0.0523675
16.8278,0.0777451
17.2217,0.0640127
17.6156,0.0779134
18.0095,0.0762221
18.4035,0.0764527
18.7974,0.0573595
19.1913,0.0704023
19.5852,0.0633537
19.9791,0.0796135
20.373,0.0553305
20.7669,0.0707672
21.1608,0.0689685
21.5547,0.0562064
21.9486,0.124624
22.3425,0.2466
22.7364,0.68955
23.1304,0.230887
23.5243,0.106825
23.9182,0.109383
24.3121,0.0846074
24.706,0.0809651
25.0999,0.0632634
25.4938,0.0712836
25.8877,0.0609777
26.2816,0.0430603
26.6755,0.0673721
27.0694,0.0541853
27.4633,0.0663704
27.8573,0.0610431
28.2512,0.0750988
28.6451,0.0951403
29.039,0.0711685
29.4329,0.0580685
29.8268,0.050142
30.2207,0.0816372
30.6146,0.120169
31.0085,0.073021
31.4024,0.0593853
31.7963,0.0738428
32.1903,0.0427154
32.5842,0.0609905
32.9781,0.0787968
33.372,0.0541027
33.7659,0.0586696
34.1598,0.0587293
34.5537,0.0586823
34.9476,0.0625994
35.3415,0.0797024
35.7354,0.0796563
36.1293,0.0696844
36.5232,0.0725334
36.9172,0.0685435
37.3111,0.0839108
37.705,0.0920285
38.0989,0.357002
38.4928,0.430654
38.8867,0.125663
39.2806,0.0707848
39.6745,0.0723412
40.0684,0.0585965
40.4623,0.0604827
40.8562,0.077672
41.2501,0.0709217
41.6441,0.0709776
42.038,0.0577797
42.4319,0.0771562
42.8258,0.119892
43.2197,0.0720773
43.6136,0.118194
44.0075,0.0803401
44.4014,0.0649573
44.7953,0.0837528
45.1892,0.0623543
45.5831,0.102945
45.977,0.364317
46.371,0.904574
46.7649,0.182161
47.1588,0.102962
47.5527,0.0825284
47.9466,0.0806385
48.3405,0.0520576
48.7344,0.0661502
49.1283,0.0632733
49.5222,0.0553773
49.9161,0.0607166
50.31,0.0569571
50.7039,0.0664719
51.0979,0.0710794
51.4918,0.0347268
51.8857,0.0780862
52.2796,0.0520774
52.6735,0.0687724
53.0674,0.0678986
53.4613,0.0709147
53.8552,0.0739229
54.2491,0.148507
54.643,0.231425
55.0369,0.0802248
55.4309,0.0665547
55.8248,0.0872823
56.2187,0.0638511
56.6126,0.0510212
57.0065,0.0614652
57.4004,0.0530202
57.7943,0.0754731
58.1882,0.0599659
58.5821,0.080987
58.976,0.0664472
59.3699,0.0829361
59.7638,0.096759
60.1578,0.0311302
60.5517,0.0411729
60.9456,0.0651568
61.3395,0.0647322
61.7334,0.0642016
62.1273,0.0533016
62.5212,0.0632365
62.9151,0.0673784
63.309,0.0575777
63.7029,0.0518593
64.0968,0.066592
64.4907,0.088635
64.8847,0.0451959
65.2786,0.0512891
65.6725,0.0660613
66.0664,0.0847961
66.4603,0.0445522
66.8542,0.0654902
67.2481,0.050372
67.642,0.0806337
68.0359,0.0691541
68.4298,0.0766177
68.8237,0.0643221
69.2176,0.0680632
69.6116,0.0632206
70.0055,0.0475027
70.3994,0.0570448
70.7933,0.0689491
71.1872,0.0505144
71.5811,0.0674892
71.975,0.0706527
72.3689,0.0835814
72.7628,0.062127
73.1567,0.0531629
73.5506,0.0618573
73.9445,0.0619157
74.3385,0.0533261
74.7324,0.12979
75.1263,0.0584824
75.5202,0.0543449
75.9141,0.0635339
76.308,0.0501964
76.7019,0.0753904
77.0958,0.05546
77.4897,0.0451768
77.8836,0.0684096
78.2775,0.0508376
78.6715,0.060338
79.0654,0.0684583
79.4593,0.0600319
79.8532,0.0502038
80.2471,0.0712545
80.641,0.0544354
81.0349,0.0206307
81.4288,0.0704097
81.8227,0.092487
82.2166,0.0836124
82.6105,0.0772251
83.0044,0.0489357
83.3984,0.0628014
83.7923,0.054249
84.1862,0.0632384
84.5801,0.0746856
84.974,0.0497322
85.3679,0.0633849
85.7618,0.0672971
86.1557,0.0709927
86.5496,0.0709058
86.9435,0.0542785
87.3374,0.0628758
87.7313,0.0774196
88.1253,0.0665496
88.5192,0.0835798
88.9131,0.0663276
89.307,0.0662358
89.7009,0.0801102
90.0948,0.0619114
90.4887,0.0729341
90.8826,0.0855628
91.2765,0.0475306
91.6704,0.0724116
92.0643,0.0822256
92.4582,0.0758919
92.8522,0.0613757
93.2461,0.0574254
93.64,0.0366486
94.0339,0.0536487
94.4278,0.0628611
94.8217,0.0813011
95.2156,0.0750647
95.6095,0.0449516
96.0034,0.0755599
96.3973,0.0642461
96.7912,0.0553106
97.1851,0.0716105
97.5791,0.0848478
97.973,0.0713243
98.3669,0.0635187
98.7608,0.0634751
99.1547,0.0443156
99.5486,0.0635032
99.9425,0.071282
100.336,0.0783391
100.73,0.050028
101.124,0.0848732
101.518,0.0749852
101.912,0.0593291
102.306,0.0780567
102.7,0.0708907
103.094,0.090094
103.488,0.0628637
103.882,0.0838769
104.276,0.0773968
104.669,0.0666489
105.063,0.074002
105.457,0.0585687
105.851,0.084036
106.245,0.0708078
106.639,0.0495972
107.033,0.0782305
107.427,0.0550275
107.821,0.0598337
108.215,0.0719986
108.608,0.0756955
109.002,0.0556851
109.396,0.0824069
109.79,0.0507126
110.184,0.0556284
110.578,0.0601625
110.972,0.0823734
111.366,0.0602223
111.76,0.060294
112.154,0.0603958
112.548,0.0559889
112.941,0.0688766
113.335,0.0728089
113.729,0.0832533
114.123,0.0567168
114.517,0.0612994
114.911,0.0765763
115.305,0.0794713
115.699,0.0504497
116.093,0.0498421
116.487,0.0629687
116.881,0.0771461
117.274,0.0732706
117.668,0.0762731
118.062,0.0823365
118.456,0.0850608
118.85,0.0606204
119.244,0.0466023
119.638,0.0743129
119.992,0.0825771