File: DPhil-projects/SIBC StrucMag/processed_XRD_spectra/SuNAM21Gd-SM2a_processed.csv
Angle,Intensity
5.01057,0.104081
5.40447,0.106132
5.79838,0.0903527
6.19229,0.082155
6.5862,0.108038
6.98011,0.113067
7.37402,0.154339
7.76792,0.0924737
8.16183,0.0960155
8.55574,0.0567121
8.94965,0.0688119
9.34356,0.0611362
9.73747,0.0865346
10.1314,0.0869629
10.5253,0.0815248
10.9192,0.078097
11.3131,0.0855283
11.707,0.0669429
12.1009,0.0656632
12.4948,0.114167
12.8887,0.0985948
13.2826,0.108395
13.6766,0.0946334
14.0705,0.069365
14.4644,0.087516
14.8583,0.0928065
15.2522,0.0657449
15.6461,0.103386
16.04,0.0812106
16.4339,0.0902966
16.8278,0.0959827
17.2217,0.0851814
17.6156,0.0836486
18.0095,0.0852745
18.4035,0.0669184
18.7974,0.0673633
19.1913,0.0859761
19.5852,0.0773346
19.9791,0.0864784
20.373,0.0766752
20.7669,0.0740846
21.1608,0.0641418
21.5547,0.0622284
21.9486,0.13456
22.3425,0.227775
22.7364,0.569124
23.1304,0.192265
23.5243,0.12497
23.9182,0.100463
24.3121,0.107202
24.706,0.099395
25.0999,0.0835304
25.4938,0.0997912
25.8877,0.0682562
26.2816,0.09776
26.6755,0.115204
27.0694,0.082583
27.4633,0.0744883
27.8573,0.085336
28.2512,0.0515373
28.6451,0.13376
29.039,0.0703541
29.4329,0.094374
29.8268,0.0807141
30.2207,0.127404
30.6146,0.106736
31.0085,0.110827
31.4024,0.0593852
31.7963,0.0774332
32.1903,0.0669995
32.5842,0.105851
32.9781,0.110594
33.372,0.0695989
33.7659,0.104314
34.1598,0.0764535
34.5537,0.0817679
34.9476,0.0571003
35.3415,0.0567145
35.7354,0.0693777
36.1293,0.0940834
36.5232,0.073512
36.9172,0.0880254
37.3111,0.112205
37.705,0.129159
38.0989,0.346428
38.4928,0.400693
38.8867,0.13389
39.2806,0.114814
39.6745,0.0765006
40.0684,0.0592783
40.4623,0.0802288
40.8562,0.0553415
41.2501,0.0992225
41.6441,0.0903533
42.038,0.0848834
42.4319,0.0945219
42.8258,0.174052
43.2197,0.0868566
43.6136,0.166143
44.0075,0.0840787
44.4014,0.0647271
44.7953,0.094375
45.1892,0.11247
45.5831,0.0906293
45.977,0.381104
46.371,0.970283
46.7649,0.202788
47.1588,0.0837775
47.5527,0.10535
47.9466,0.0985359
48.3405,0.059601
48.7344,0.0930096
49.1283,0.0629143
49.5222,0.0820727
49.9161,0.102172
50.31,0.0846134
50.7039,0.0803315
51.0979,0.105479
51.4918,0.0632578
51.8857,0.0878779
52.2796,0.0819084
52.6735,0.0688798
53.0674,0.0854322
53.4613,0.0990786
53.8552,0.0788133
54.2491,0.156417
54.643,0.279877
55.0369,0.110936
55.4309,0.0942587
55.8248,0.0738015
56.2187,0.0906424
56.6126,0.0862945
57.0065,0.0968698
57.4004,0.08783
57.7943,0.0984943
58.1882,0.0946093
58.5821,0.0793519
58.976,0.0965537
59.3699,0.1069
59.7638,0.0985666
60.1578,0.0698756
60.5517,0.062441
60.9456,0.0774118
61.3395,0.10459
61.7334,0.0834285
62.1273,0.0832136
62.5212,0.0887882
62.9151,0.103811
63.309,0.0938252
63.7029,0.0987443
64.0968,0.107957
64.4907,0.0823393
64.8847,0.0759745
65.2786,0.0821486
65.6725,0.0931219
66.0664,0.0754673
66.4603,0.102513
66.8542,0.0601774
67.2481,0.110861
67.642,0.0968026
68.0359,0.109968
68.4298,0.100536
68.8237,0.0847369
69.2176,0.0840361
69.6116,0.0562929
70.0055,0.0973877
70.3994,0.0690361
70.7933,0.112316
71.1872,0.0895263
71.5811,0.066197
71.975,0.101649
72.3689,0.157662
72.7628,0.127081
73.1567,0.0818251
73.5506,0.0764029
73.9445,0.0496004
74.3385,0.0820861
74.7324,0.187618
75.1263,0.0504741
75.5202,0.106028
75.9141,0.0724185
76.308,0.0890385
76.7019,0.0731523
77.0958,0.0790496
77.4897,0.10311
77.8836,0.0842661
78.2775,0.0984373
78.6715,0.0726812
79.0654,0.0979215
79.4593,0.0657409
79.8532,0.0826812
80.2471,0.104946
80.641,0.0703293
81.0349,0.0698143
81.4288,0.080559
81.8227,0.103159
82.2166,0.0945311
82.6105,0.0945711
83.0044,0.0902259
83.3984,0.115227
83.7923,0.0637581
84.1862,0.0817381
84.5801,0.116819
84.974,0.0879309
85.3679,0.110195
85.7618,0.0782955
86.1557,0.0840153
86.5496,0.0789723
86.9435,0.0897111
87.3374,0.0849202
87.7313,0.0606953
88.1253,0.0901141
88.5192,0.0674145
88.9131,0.0894887
89.307,0.0594446
89.7009,0.0777419
90.0948,0.0824118
90.4887,0.0961035
90.8826,0.122734
91.2765,0.0805478
91.6704,0.0851431
92.0643,0.114247
92.4582,0.110311
92.8522,0.0982226
93.2461,0.121233
93.64,0.0896543
94.0339,0.0801629
94.4278,0.099298
94.8217,0.0861146
95.2156,0.100284
95.6095,0.100784
96.0034,0.0924032
96.3973,0.0881479
96.7912,0.0886934
97.1851,0.0940428
97.5791,0.0991847
97.973,0.0904834
98.3669,0.0749095
98.7608,0.091669
99.1547,0.0967461
99.5486,0.0625266
99.9425,0.113423
100.336,0.0910145
100.73,0.0740497
101.124,0.0942819
101.518,0.0935703
101.912,0.0656627
102.306,0.101272
102.7,0.0871955
103.094,0.0917073
103.488,0.10866
103.882,0.096211
104.276,0.108947
104.669,0.0922596
105.063,0.105796
105.457,0.0885443
105.851,0.0939457
106.245,0.0793694
106.639,0.0951273
107.033,0.0908792
107.427,0.0961711
107.821,0.128419
108.215,0.101476
108.608,0.0971166
109.002,0.0698682
109.396,0.110103
109.79,0.101444
110.184,0.0967371
110.578,0.109635
110.972,0.0866284
111.366,0.0915749
111.76,0.113331
112.154,0.0962238
112.548,0.100735
112.941,0.0863366
113.335,0.0912393
113.729,0.0804642
114.123,0.0951349
114.517,0.0845172
114.911,0.0837405
115.305,0.105911
115.699,0.0824308
116.093,0.096331
116.487,0.0866959
116.881,0.0703529
117.274,0.0959345
117.668,0.0764427
118.062,0.0711302
118.456,0.101674
118.85,0.0664028
119.244,0.0737964
119.638,0.0913583
119.992,0.0703365