File: DPhil-projects/SIBC StrucMag/processed_XRD_spectra/SuNAM21Gd-SM2b_processed.csv
Angle,Intensity
5.01057,0.0431877
5.40447,0.0570662
5.79838,0.0548375
6.19229,0.0696223
6.5862,0.0727826
6.98011,0.101326
7.37402,0.182602
7.76792,0.0639368
8.16183,0.0488459
8.55574,0.0432642
8.94965,0.0439895
9.34356,0.0582199
9.73747,0.0389111
10.1314,0.0590601
10.5253,0.0705345
10.9192,0.0626333
11.3131,0.0440594
11.707,0.0705727
12.1009,0.0635993
12.4948,0.080927
12.8887,0.0608652
13.2826,0.0603393
13.6766,0.0704869
14.0705,0.0718335
14.4644,0.066206
14.8583,0.0694019
15.2522,0.0444464
15.6461,0.0458931
16.04,0.0624688
16.4339,0.0533927
16.8278,0.0426445
17.2217,0.0534473
17.6156,0.0586324
18.0095,0.0394961
18.4035,0.0237853
18.7974,0.0449316
19.1913,0.0628244
19.5852,0.0528916
19.9791,0.0532683
20.373,0.0500801
20.7669,0.0582244
21.1608,0.0578228
21.5547,0.0806523
21.9486,0.117568
22.3425,0.241538
22.7364,0.569651
23.1304,0.193808
23.5243,0.120843
23.9182,0.0775332
24.3121,0.0559654
24.706,0.0620785
25.0999,0.055216
25.4938,0.0365402
25.8877,0.0519802
26.2816,0.0557305
26.6755,0.0657317
27.0694,0.0635571
27.4633,0.0499528
27.8573,0.0740593
28.2512,0.0527946
28.6451,0.0646334
29.039,0.0628156
29.4329,0.0419248
29.8268,0.0422403
30.2207,0.0884036
30.6146,0.0847588
31.0085,0.0563266
31.4024,0.0724961
31.7963,0.0629462
32.1903,0.0517533
32.5842,0.0614642
32.9781,0.0726172
33.372,0.0570197
33.7659,0.0296333
34.1598,0.0394162
34.5537,0.0433235
34.9476,0.0597722
35.3415,0.0620425
35.7354,0.0415082
36.1293,0.060506
36.5232,0.0507695
36.9172,0.0563909
37.3111,0.0868934
37.705,0.0963289
38.0989,0.426937
38.4928,0.328169
38.8867,0.125613
39.2806,0.0623906
39.6745,0.0550772
40.0684,0.066073
40.4623,0.0442374
40.8562,0.0578663
41.2501,0.0653002
41.6441,0.0588176
42.038,0.0422331
42.4319,0.0899347
42.8258,0.12246
43.2197,0.0496576
43.6136,0.0929071
44.0075,0.0625907
44.4014,0.0612998
44.7953,0.0707533
45.1892,0.0513145
45.5831,0.0979848
45.977,0.414127
46.371,0.861621
46.7649,0.151952
47.1588,0.0721698
47.5527,0.0627254
47.9466,0.0550304
48.3405,0.0417435
48.7344,0.0645254
49.1283,0.0632406
49.5222,0.058064
49.9161,0.0655436
50.31,0.0630059
50.7039,0.080425
51.0979,0.0603149
51.4918,0.0636913
51.8857,0.0777706
52.2796,0.0553859
52.6735,0.0612633
53.0674,0.0634923
53.4613,0.0526431
53.8552,0.0759645
54.2491,0.182921
54.643,0.24262
55.0369,0.0781542
55.4309,0.0735317
55.8248,0.0597091
56.2187,0.0358084
56.6126,0.0367398
57.0065,0.0517268
57.4004,0.0387401
57.7943,0.0642909
58.1882,0.0581364
58.5821,0.0550238
58.976,0.0695645
59.3699,0.0600692
59.7638,0.0567166
60.1578,0.0677567
60.5517,0.0608719
60.9456,0.0367346
61.3395,0.0604717
61.7334,0.0637937
62.1273,0.0635934
62.5212,0.0785807
62.9151,0.0666799
63.309,0.0517411
63.7029,0.063266
64.0968,0.0517347
64.4907,0.0559096
64.8847,0.0596689
65.2786,0.0781763
65.6725,0.0661501
66.0664,0.0412307
66.4603,0.0588394
66.8542,0.080028
67.2481,0.0824575
67.642,0.0620115
68.0359,0.0545645
68.4298,0.0545239
68.8237,0.0405181
69.2176,0.0682633
69.6116,0.0400116
70.0055,0.0783386
70.3994,0.0659973
70.7933,0.0510564
71.1872,0.0639778
71.5811,0.0530803
71.975,0.0787922
72.3689,0.0977788
72.7628,0.0515881
73.1567,0.0476099
73.5506,0.0336311
73.9445,0.0616245
74.3385,0.0731353
74.7324,0.119033
75.1263,0.0737401
75.5202,0.0488887
75.9141,0.063038
76.308,0.0493682
76.7019,0.0602389
77.0958,0.0821869
77.4897,0.02938
77.8836,0.0632896
78.2775,0.0630433
78.6715,0.0488641
79.0654,0.0624478
79.4593,0.0621363
79.8532,0.0553284
80.2471,0.0435123
80.641,0.0334657
81.0349,0.0611764
81.4288,0.0908889
81.8227,0.069802
82.2166,0.0800539
82.6105,0.0702584
83.0044,0.034158
83.3984,0.0524603
83.7923,0.0630968
84.1862,0.0749997
84.5801,0.0577527
84.974,0.0580322
85.3679,0.0546062
85.7618,0.0467317
86.1557,0.0548115
86.5496,0.0548642
86.9435,0.0547791
87.3374,0.0646046
87.7313,0.0642135
88.1253,0.0604934
88.5192,0.0529707
88.9131,0.052349
89.307,0.0517459
89.7009,0.0431935
90.0948,0.0506548
90.4887,0.0422169
90.8826,0.076216
91.2765,0.0495649
91.6704,0.0681138
92.0643,0.0594461
92.4582,0.0681742
92.8522,0.0830604
93.2461,0.0499958
93.64,0.0572985
94.0339,0.0747693
94.4278,0.0433775
94.8217,0.0278295
95.2156,0.0556927
95.6095,0.0559527
96.0034,0.0685804
96.3973,0.0629382
96.7912,0.0631743
97.1851,0.0453608
97.5791,0.0409906
97.973,0.0668703
98.3669,0.0502004
98.7608,0.0729022
99.1547,0.0462805
99.5486,0.064244
99.9425,0.0539076
100.336,0.0635455
100.73,0.0404124
101.124,0.0487046
101.518,0.0441317
101.912,0.0618434
102.306,0.0515448
102.7,0.0514342
103.094,0.0892064
103.488,0.0780539
103.882,0.0733808
104.276,0.0859063
104.669,0.0531451
105.063,0.0538475
105.457,0.0581578
105.851,0.0683726
106.245,0.055713
106.639,0.0658157
107.033,0.0592089
107.427,0.0656153
107.821,0.0685389
108.215,0.0428223
108.608,0.0553581
109.002,0.0653924
109.396,0.0473269
109.79,0.0588302
110.184,0.0472038
110.578,0.0470682
110.972,0.0371087
111.366,0.0547741
111.76,0.0508182
112.154,0.0704575
112.548,0.0579446
112.941,0.0577793
113.335,0.0361805
113.729,0.0637344
114.123,0.0406739
114.517,0.0629042
114.911,0.0486226
115.305,0.0621479
115.699,0.0437836
116.093,0.0550576
116.487,0.0776734
116.881,0.0724881
117.274,0.0821512
117.668,0.066932
118.062,0.0545313
118.456,0.050976
118.85,0.0639969
119.244,0.0771735
119.638,0.0605819
119.992,0.0632614